\begin_header
Reference "pure water" absorption (aref), and temperature (PsiT) and salinity (PsiS) correction coefficients. 
These are used to compute T and S corrections to the reference pure water absorption spectrum via
a(lambda,T,S) = aref(lambda) + (T - Tref)*PsiT(lambda) + S*PsiS(lambda); Tref = 22 deg C
The reference absorption spectrum aref(lambda) is based on:                                          
   200-300 nm: R.C. Smith and K. Baker, 1981. Appl. Optics 20(2), 177-184.         
   300-340 nm: smooth transition from Smith & Baker at 300 to Sogandares & Fry at 340                                      
   340-380 nm: F.M. Sogandares and E.S. Fry, 1997. Appl. Optics 36(33), 8699-8709.                                         
   380-725 nm: R.M. Pope and E.S. Fry, 1997.  Appl. Optics 36(33), 8710-8723.                                              
   725-800 nm: R.C. Smith and K. Baker, 1981. Appl. Optics 20(2), 177-184.                                                 
   800-2000nm: D. Segelstein, 1981. "The Complex Refrac. Index of Water", M.S. Thesis, U. Missouri                         
   Measured absorption data were spline fit and resampled to 5 nm resolution.                                              
The T and S coefficients are from Ruediger, McKee, and Utschig, Optics Express 22(21), 25093-25108,
   spline fit to 5 nm resolution.  Values less than 400 nm are assumed to be negligible.                  
wavelen[nm]  aref[1/m]  PsiT[(1/m)/deg C] PsiS[(1/m)/ppt]
\end_header 
   200.0    3.0700e+000    0.0000e+000    0.0000e+000
   205.0    2.4819e+000    0.0000e+000    0.0000e+000
   210.0    1.9900e+000    0.0000e+000    0.0000e+000
   215.0    1.6075e+000    0.0000e+000    0.0000e+000
   220.0    1.3100e+000    0.0000e+000    0.0000e+000
   225.0    1.0901e+000    0.0000e+000    0.0000e+000
   230.0    9.2700e-001    0.0000e+000    0.0000e+000
   235.0    8.1200e-001    0.0000e+000    0.0000e+000
   240.0    7.2000e-001    0.0000e+000    0.0000e+000
   245.0    6.3428e-001    0.0000e+000    0.0000e+000
   250.0    5.5900e-001    0.0000e+000    0.0000e+000
   255.0    5.0262e-001    0.0000e+000    0.0000e+000
   260.0    4.5700e-001    0.0000e+000    0.0000e+000
   265.0    4.1492e-001    0.0000e+000    0.0000e+000
   270.0    3.7300e-001    0.0000e+000    0.0000e+000
   275.0    3.2966e-001    0.0000e+000    0.0000e+000
   280.0    2.8800e-001    0.0000e+000    0.0000e+000
   285.0    2.5114e-001    0.0000e+000    0.0000e+000
   290.0    2.1500e-001    0.0000e+000    0.0000e+000
   295.0    1.7622e-001    0.0000e+000    0.0000e+000
   300.0    1.4100e-001    0.0000e+000    0.0000e+000
   305.0    1.1648e-001    0.0000e+000    0.0000e+000
   310.0    9.9000e-002    0.0000e+000    0.0000e+000
   315.0    8.5249e-002    0.0000e+000    0.0000e+000
   320.0    7.3000e-002    0.0000e+000    0.0000e+000
   325.0    6.1085e-002    0.0000e+000    0.0000e+000
   330.0    5.0000e-002    0.0000e+000    0.0000e+000
   335.0    4.0600e-002    0.0000e+000    0.0000e+000
   340.0    3.2500e-002    0.0000e+000    0.0000e+000
   345.0    2.5603e-002    0.0000e+000    0.0000e+000
   350.0    2.0400e-002    0.0000e+000    0.0000e+000
   355.0    1.7589e-002    0.0000e+000    0.0000e+000
   360.0    1.5600e-002    0.0000e+000    0.0000e+000
   365.0    1.3160e-002    0.0000e+000    0.0000e+000
   370.0    1.1400e-002    0.0000e+000    0.0000e+000
   375.0    1.1496e-002    0.0000e+000    0.0000e+000
   380.0    1.1370e-002    0.0000e+000    0.0000e+000
   385.0    9.4100e-003    0.0000e+000    0.0000e+000
   390.0    8.5100e-003    0.0000e+000    0.0000e+000
   395.0    8.1300e-003    0.0000e+000    0.0000e+000
   400.0    6.6300e-003    1.4400e-005    4.3200e-005
   405.0    5.3000e-003    1.3977e-005    3.7421e-005
   410.0    4.7300e-003   -6.8200e-006    3.5800e-005
   415.0    4.4400e-003    1.9106e-005    3.3614e-005
   420.0    4.5400e-003   -2.9700e-008    3.1500e-005
   425.0    4.7800e-003   -6.8475e-006    2.8080e-005
   430.0    4.9500e-003   -1.1500e-005    2.6300e-005
   435.0    5.3000e-003    1.4826e-006    2.4793e-005
   440.0    6.3500e-003    2.9600e-006    2.2200e-005
   445.0    7.5100e-003    5.8217e-006    1.9192e-005
   450.0    9.2200e-003    1.7700e-005    1.7300e-005
   455.0    9.6200e-003    1.2397e-005    1.6555e-005
   460.0    9.7900e-003    6.8400e-006    1.3900e-005
   465.0    1.0110e-002    2.4073e-006    1.2834e-005
   470.0    1.0600e-002   -6.1300e-006    1.0600e-005
   475.0    1.1400e-002   -5.9701e-006    9.2092e-006
   480.0    1.2700e-002   -3.1400e-006    7.9700e-006
   485.0    1.3600e-002   -9.5931e-006    6.4005e-006
   490.0    1.5000e-002   -9.3100e-006    5.7500e-006
   495.0    1.7300e-002   -2.0915e-006    5.2465e-006
   500.0    2.0400e-002    1.2200e-005    4.7400e-006
   505.0    2.5600e-002    3.0572e-005    4.2889e-006
   510.0    3.2500e-002    7.7100e-005    1.7500e-006
   515.0    3.9600e-002    1.2095e-004    7.8339e-006
   520.0    4.0900e-002    1.0500e-004    1.3300e-005
   525.0    4.1700e-002    7.3311e-005    1.4325e-005
   530.0    4.3400e-002    4.0800e-005    1.4900e-005
   535.0    4.5200e-002    1.4730e-005    1.4845e-005
   540.0    4.7400e-002    4.0000e-006    1.4700e-005
   545.0    5.1100e-002   -9.9495e-006    1.3469e-005
   550.0    5.6500e-002   -8.2000e-006    1.2700e-005
   555.0    5.9600e-002   -1.6076e-005    1.5940e-005
   560.0    6.1900e-002   -3.6200e-005    1.5900e-005
   565.0    6.4200e-002   -5.6379e-005    1.4972e-005
   570.0    6.9500e-002   -6.7200e-005    1.2700e-005
   575.0    7.7200e-002   -5.7756e-005    9.6071e-006
   580.0    8.9600e-002   -1.3900e-006    3.7400e-006
   585.0    1.1000e-001    1.2283e-004    1.1825e-006
   590.0    1.3510e-001    2.5300e-004    2.7800e-006
   595.0    1.6720e-001    4.5353e-004   -1.7973e-006
   600.0    2.2240e-001    7.8200e-004   -1.6200e-005
   605.0    2.5770e-001    1.0263e-003    4.2548e-005
   610.0    2.6440e-001    9.4700e-004    7.5400e-005
   615.0    2.6780e-001    7.1706e-004    8.3429e-005
   620.0    2.7550e-001    5.3900e-004    8.3800e-005
   625.0    2.8340e-001    3.1182e-004    7.9984e-005
   630.0    2.9160e-001    9.1300e-005    7.6500e-005
   635.0    3.0120e-001   -5.4079e-005    7.2979e-005
   640.0    3.1800e-001   -1.9600e-004    7.0200e-005
   645.0    3.2500e-001   -2.6446e-004    6.6411e-005
   650.0    3.4000e-001   -3.3900e-004    5.9900e-005
   655.0    3.7100e-001   -2.2391e-004    3.5161e-005
   660.0    4.1000e-001    7.6300e-005    4.0700e-005
   665.0    4.2900e-001    8.8566e-005    6.3283e-005
   670.0    4.3900e-001   -3.6800e-005    6.2000e-005
   675.0    4.4800e-001   -2.1244e-004    4.5683e-005
   680.0    4.6500e-001   -3.6100e-004    2.5000e-005
   685.0    4.8600e-001   -4.2702e-004   -2.3668e-006
   690.0    5.1600e-001   -4.3400e-004   -3.3800e-005
   695.0    5.5900e-001   -4.1344e-004   -6.9769e-005
   700.0    6.2400e-001   -1.6600e-004   -1.1600e-004
   705.0    7.0400e-001    1.6075e-004   -1.4417e-004
   710.0    8.2700e-001    1.1100e-003   -1.8100e-004
   715.0    1.0070e+000    2.7327e-003   -1.9329e-004
   720.0    1.2310e+000    4.6300e-003   -1.8400e-004
   725.0    1.4890e+000    6.5834e-003   -2.0100e-004
   730.0    1.7990e+000    9.8300e-003   -4.3500e-004
   735.0    2.1289e+000    1.4844e-002   -3.6480e-004
   740.0    2.3800e+000    1.6100e-002    1.7800e-004
   745.0    2.4590e+000    1.3722e-002    4.7598e-004
   750.0    2.4700e+000    1.0500e-002    6.5100e-004
   755.0    2.5098e+000    7.4466e-003    6.7990e-004
   760.0    2.5500e+000    4.4700e-003    6.5800e-004
   765.0    2.5472e+000    1.8545e-003    5.9897e-004
   770.0    2.5100e+000   -4.3700e-004    5.2800e-004
   775.0    2.4460e+000   -2.4464e-003    4.4442e-004
   780.0    2.3600e+000   -4.0400e-003    3.5600e-004
   785.0    2.2549e+000   -5.2135e-003    2.2706e-004
   790.0    2.1600e+000   -5.9400e-003    1.1200e-004
   795.0    2.1042e+000   -6.1661e-003   -1.0814e-005
   800.0    2.0700e+000   -6.0200e-003   -1.2800e-004
   805.0    2.0494e+000   -5.1919e-003   -2.8298e-004
   810.0    2.0916e+000   -3.8400e-003   -4.3900e-004
   815.0    2.2463e+000   -2.0075e-003   -5.2205e-004
   820.0    2.4669e+000   -4.9900e-006   -6.2200e-004
   825.0    2.8190e+000    3.2585e-003   -8.8341e-004
   830.0    3.0975e+000    1.0100e-002   -1.3100e-003
   835.0    3.3423e+000    1.5262e-002   -8.4149e-004
   840.0    3.7098e+000    1.4500e-002   -2.4400e-004
   845.0    3.9835e+000    1.1511e-002   -6.8906e-006
   850.0    4.3758e+000    8.3000e-003    3.8500e-005
   855.0    4.6308e+000    4.8800e-003    1.4360e-005
   860.0    4.9393e+000    2.6800e-003   -2.0300e-004
   865.0    5.1535e+000   -1.2985e-004   -5.9165e-004
   870.0    5.3659e+000   -4.6200e-003   -7.9100e-004
   875.0    5.6114e+000   -6.3095e-003   -1.2041e-003
   880.0    5.8288e+000   -7.8100e-003   -1.6300e-003
   885.0    6.0074e+000   -8.7022e-003   -2.0493e-003
   890.0    6.2567e+000   -9.0400e-003   -2.2400e-003
   895.0    6.4708e+000   -8.5379e-003   -2.3128e-003
   900.0    6.8198e+000   -7.1400e-003   -2.5000e-003
   905.0    7.1028e+000   -4.6526e-003   -2.8105e-003
   910.0    7.8970e+000   -6.4100e-004   -2.9100e-003
   915.0    9.4786e+000    5.6372e-003   -3.1247e-003
   920.0    1.1171e+001    1.4900e-002   -3.4300e-003
   925.0    1.4658e+001    2.8416e-002   -4.1844e-003
   930.0    1.9270e+001    4.6300e-002   -4.7400e-003
   935.0    2.3414e+001    6.7859e-002   -5.6104e-003
   940.0    2.9309e+001    9.1700e-002   -6.1200e-003
   945.0    3.4684e+001    1.1840e-001   -8.0694e-003
   950.0    3.8304e+001    1.5200e-001   -1.2400e-002
   955.0    4.1981e+001    1.9507e-001   -1.5899e-002
   960.0    4.4081e+001    2.3500e-001   -1.1700e-002
   965.0    4.4890e+001    2.5569e-001   -3.9858e-003
   970.0    4.5310e+001    2.4400e-001   -1.1300e-004
   975.0    4.4852e+001    2.0603e-001    1.3633e-003
   980.0    4.3710e+001    1.5700e-001    2.0800e-003
   985.0    4.2409e+001    1.0491e-001    1.9214e-003
   990.0    4.1418e+001    5.6100e-002    2.8400e-004
   995.0    3.9679e+001    1.2965e-002   -1.5975e-003
  1000.0    3.7697e+001   -2.1600e-002   -3.4700e-003
  1005.0    3.5354e+001   -4.8426e-002   -5.4631e-003
  1010.0    3.3172e+001   -6.7600e-002   -7.2200e-003
  1015.0    3.1161e+001   -8.0242e-002   -8.5266e-003
  1020.0    2.9280e+001   -8.7200e-002   -9.6000e-003
  1025.0    2.6888e+001   -8.9201e-002   -1.0126e-002
  1030.0    2.4575e+001   -8.8200e-002   -9.8900e-003
  1035.0    2.2381e+001   -8.4364e-002   -9.4073e-003
  1040.0    2.0383e+001   -7.8900e-002   -8.8500e-003
  1045.0    1.8520e+001   -7.2546e-002   -8.0544e-003
  1050.0    1.6910e+001   -6.6000e-002   -7.2100e-003
  1055.0    1.6084e+001   -5.9174e-002   -6.1691e-003
  1060.0    1.5364e+001   -5.3400e-002   -5.2700e-003
  1065.0    1.5049e+001   -4.7811e-002   -4.8453e-003
  1070.0    1.4859e+001   -4.2800e-002   -4.3400e-003
  1075.0    1.5202e+001   -3.8155e-002   -4.3385e-003
  1080.0    1.5666e+001   -3.3700e-002   -4.2700e-003
  1085.0    1.6563e+001   -2.8679e-002   -4.7666e-003
  1090.0    1.7526e+001   -2.2900e-002   -4.6400e-003
  1095.0    1.8617e+001   -1.6408e-002   -5.6998e-003
  1100.0    1.9859e+001   -8.2300e-003   -6.2200e-003
  1105.0    2.1560e+001    1.3875e-003   -6.4247e-003
  1110.0    2.3544e+001    1.3700e-002   -6.3600e-003
  1115.0    2.6554e+001    2.9278e-002   -6.6485e-003
  1120.0    3.0159e+001    5.0000e-002   -7.2100e-003
  1125.0    3.6170e+001    8.0901e-002   -9.9004e-003
  1130.0    4.3384e+001    1.3100e-001   -1.5200e-002
  1135.0    5.3152e+001    2.1137e-001   -2.5832e-002
  1140.0    6.5060e+001    3.2800e-001   -3.7600e-002
  1145.0    8.0012e+001    4.7291e-001   -3.8759e-002
  1150.0    9.8335e+001    5.9400e-001   -2.7500e-002
  1155.0    1.0890e+002    6.2789e-001   -9.1413e-003
  1160.0    1.1640e+002    5.7200e-001    3.5700e-003
  1165.0    1.1844e+002    4.6890e-001    9.4318e-003
  1170.0    1.2044e+002    3.5500e-001    1.0300e-002
  1175.0    1.2194e+002    2.4964e-001    8.5163e-003
  1180.0    1.2344e+002    1.5800e-001    5.6400e-003
  1185.0    1.2400e+002    7.9677e-002    1.2389e-003
  1190.0    1.2449e+002    8.4400e-003   -3.3600e-003
  1195.0    1.2509e+002   -5.6829e-002   -6.9157e-003
  1200.0    1.2557e+002   -1.1700e-001   -9.6000e-003
  1205.0    1.2463e+002   -1.7167e-001   -1.2799e-002
  1210.0    1.2370e+002   -2.1700e-001   -1.6100e-002
  1215.0    1.2251e+002   -2.5459e-001   -2.0649e-002
  1220.0    1.2127e+002   -2.8400e-001   -2.5500e-002
  1225.0    1.1991e+002   -3.0575e-001   -3.0931e-002
  1230.0    1.1858e+002   -3.2100e-001   -3.6200e-002
  1235.0    1.1685e+002   -3.2913e-001   -4.2092e-002
  1240.0    1.1500e+002   -3.3100e-001   -4.6700e-002
  1245.0    1.1283e+002   -3.2724e-001   -5.1809e-002
  1250.0    1.1070e+002   -3.1700e-001   -5.6800e-002
  1255.0    1.0900e+002   -3.0152e-001   -5.9172e-002
  1260.0    1.0773e+002   -2.8100e-001   -6.4000e-002
  1265.0    1.0779e+002   -2.5647e-001   -6.7758e-002
  1270.0    1.0784e+002   -2.3000e-001   -7.0600e-002
  1275.0    1.0987e+002   -2.0023e-001   -7.4684e-002
  1280.0    1.1226e+002   -1.6900e-001   -7.9600e-002
  1285.0    1.1516e+002   -1.3804e-001   -8.3492e-002
  1290.0    1.1813e+002   -1.0800e-001   -8.5900e-002
  1295.0    1.2556e+002   -7.4995e-002   -9.3363e-002
  1300.0    1.3494e+002   -5.8100e-002   -9.7300e-002
  1305.0    1.4666e+002   -1.7770e-002   -1.0162e-001
  1310.0    1.5884e+002    3.5200e-002   -1.0600e-001
  1315.0    1.6866e+002    9.6827e-002   -1.1363e-001
  1320.0    1.7905e+002    1.7400e-001   -1.1800e-001
  1325.0    1.9365e+002    2.6373e-001   -1.2436e-001
  1330.0    2.1078e+002    3.7400e-001   -1.3000e-001
  1335.0    2.3779e+002    5.0959e-001   -1.3270e-001
  1340.0    2.7023e+002    6.5200e-001   -1.3300e-001
  1345.0    3.2521e+002    8.2194e-001   -1.2835e-001
  1350.0    3.7996e+002    1.0100e+000   -1.1900e-001
  1355.0    3.9533e+002    1.2391e+000   -1.0854e-001
  1360.0    4.1127e+002    1.4900e+000   -1.0200e-001
  1365.0    4.5661e+002    1.8085e+000   -1.0987e-001
  1370.0    5.1975e+002    2.2400e+000   -1.3100e-001
  1375.0    6.0279e+002    2.8106e+000   -1.6830e-001
  1380.0    7.0166e+002    3.6500e+000   -2.5500e-001
  1385.0    8.2007e+002    4.8505e+000   -4.1834e-001
  1390.0    9.5830e+002    6.2800e+000   -6.5300e-001
  1395.0    1.1565e+003    8.0224e+000   -8.8165e-001
  1400.0    1.4027e+003    1.0600e+001   -9.8900e-001
  1405.0    1.8154e+003    1.2662e+001   -9.6442e-001
  1410.0    2.3011e+003    1.3900e+001   -7.7200e-001
  1415.0    2.5792e+003    1.3619e+001   -5.6379e-001
  1420.0    2.8560e+003    1.2400e+001   -3.8200e-001
  1425.0    2.9972e+003    1.0197e+001   -2.9322e-001
  1430.0    3.1181e+003    7.3200e+000   -3.0300e-001
  1435.0    3.1473e+003    4.1666e+000   -3.9386e-001
  1440.0    3.1678e+003    1.1400e+000   -5.2700e-001
  1445.0    3.1605e+003   -1.5530e+000   -7.0239e-001
  1450.0    3.1488e+003   -3.7900e+000   -8.9600e-001
  1455.0    3.1236e+003   -5.6063e+000   -1.0919e+000
  1460.0    3.0791e+003   -7.0700e+000   -1.2500e+000
  1465.0    2.9755e+003   -8.3554e+000   -1.3732e+000
  1470.0    2.8594e+003   -9.4200e+000   -1.4700e+000
  1475.0    2.6932e+003   -1.0256e+001   -1.5652e+000
  1480.0    2.5346e+003   -1.0700e+001   -1.6200e+000
  1485.0    2.3753e+003   -1.1005e+001   -1.6796e+000
  1490.0    2.2210e+003   -1.1000e+001   -1.7300e+000
  1495.0    2.0399e+003   -1.0958e+001   -1.7658e+000
  1500.0    1.8758e+003   -1.0700e+001   -1.7800e+000
  1505.0    1.7492e+003   -1.0457e+001   -1.7652e+000
  1510.0    1.6315e+003   -1.0000e+001   -1.7500e+000
  1515.0    1.5365e+003   -9.6099e+000   -1.7148e+000
  1520.0    1.4475e+003   -9.1700e+000   -1.6700e+000
  1525.0    1.3849e+003   -8.7219e+000   -1.6255e+000
  1530.0    1.3275e+003   -8.2500e+000   -1.5600e+000
  1535.0    1.2616e+003   -7.8052e+000   -1.4975e+000
  1540.0    1.1963e+003   -7.3700e+000   -1.4400e+000
  1545.0    1.1365e+003   -6.9554e+000   -1.3692e+000
  1550.0    1.0829e+003   -6.5600e+000   -1.3100e+000
  1555.0    1.0382e+003   -6.1970e+000   -1.2544e+000
  1560.0    9.9545e+002   -5.8600e+000   -1.1700e+000
  1565.0    9.5454e+002   -5.5515e+000   -1.1197e+000
  1570.0    9.1544e+002   -5.2500e+000   -1.0600e+000
  1575.0    8.8567e+002   -4.9838e+000   -1.0194e+000
  1580.0    8.5759e+002   -4.7700e+000   -9.7200e-001
  1585.0    8.1667e+002   -4.5461e+000   -9.3944e-001
  1590.0    7.7908e+002   -4.3600e+000   -9.0000e-001
  1595.0    7.5541e+002   -4.1806e+000   -8.6985e-001
  1600.0    7.3254e+002   -4.0300e+000   -8.4800e-001
  1605.0    7.1062e+002   -3.9062e+000   -8.2163e-001
  1610.0    6.8943e+002   -3.7800e+000   -7.9500e-001
  1615.0    6.6965e+002   -3.6716e+000   -7.7903e-001
  1620.0    6.5059e+002   -3.5700e+000   -7.5900e-001
  1625.0    6.3551e+002   -3.4715e+000   -7.4619e-001
  1630.0    6.2325e+002   -3.3800e+000   -7.3700e-001
  1635.0    6.1472e+002   -3.2959e+000   -7.2519e-001
  1640.0    6.0634e+002   -3.2000e+000   -7.1600e-001
  1645.0    5.8978e+002   -3.1247e+000   -7.0380e-001
  1650.0    5.7576e+002   -3.0400e+000   -6.9700e-001
  1655.0    5.6756e+002   -2.9601e+000   -6.9109e-001
  1660.0    5.6002e+002   -2.8800e+000   -6.7500e-001
  1665.0    5.5857e+002   -2.7966e+000   -6.6851e-001
  1670.0    5.5712e+002   -2.7200e+000   -6.6300e-001
  1675.0    5.5895e+002   -2.6256e+000   -6.5891e-001
  1680.0    5.6146e+002   -2.5500e+000   -6.4500e-001
  1685.0    5.6320e+002   -2.4541e+000   -6.3218e-001
  1690.0    5.6494e+002   -2.3700e+000   -6.2600e-001
  1695.0    5.6971e+002   -2.2809e+000   -6.1419e-001
  1700.0    5.7576e+002   -2.1800e+000   -5.9900e-001
  1705.0    5.8362e+002   -2.0885e+000   -5.8561e-001
  1710.0    5.9157e+002   -1.9900e+000   -5.7100e-001
  1715.0    6.0081e+002   -1.9000e+000   -5.6094e-001
  1720.0    6.1017e+002   -1.8100e+000   -5.4500e-001
  1725.0    6.2644e+002   -1.7175e+000   -5.3833e-001
  1730.0    6.4720e+002   -1.6200e+000   -5.2200e-001
  1735.0    6.6345e+002   -1.5372e+000   -5.2638e-001
  1740.0    6.8005e+002   -1.4400e+000   -5.1400e-001
  1745.0    6.9877e+002   -1.3576e+000   -5.0642e-001
  1750.0    7.1865e+002   -1.2700e+000   -4.9400e-001
  1755.0    7.3146e+002   -1.1590e+000   -4.8554e-001
  1760.0    7.4445e+002   -1.0500e+000   -4.7000e-001
  1765.0    7.6629e+002   -9.2764e-001   -4.4921e-001
  1770.0    7.9468e+002   -7.6300e-001   -4.1400e-001
  1775.0    8.3406e+002   -5.7707e-001   -3.5986e-001
  1780.0    8.7090e+002   -3.5200e-001   -3.0200e-001
  1785.0    9.0001e+002   -8.4645e-002   -2.3228e-001
  1790.0    9.3001e+002    1.5600e-001   -1.5900e-001
  1795.0    9.4203e+002    4.2016e-001   -9.5097e-002
  1800.0    9.4964e+002    6.6500e-001   -4.3700e-002
  1805.0    9.5038e+002    8.8659e-001   -1.6799e-002
  1810.0    9.5112e+002    1.1000e+000   -5.1400e-003
  1815.0    9.5196e+002    1.2978e+000   -1.5780e-002
  1820.0    9.5357e+002    1.5100e+000   -3.4400e-002
  1825.0    9.6676e+002    1.7203e+000   -5.2510e-002
  1830.0    9.8720e+002    1.9500e+000   -7.4300e-002
  1835.0    1.0200e+003    2.2133e+000   -1.0831e-001
  1840.0    1.0537e+003    2.5200e+000   -1.6300e-001
  1845.0    1.1563e+003    2.9380e+000   -2.2373e-001
  1850.0    1.3025e+003    3.4500e+000   -3.2700e-001
  1855.0    1.6068e+003    4.1031e+000   -4.2496e-001
  1860.0    1.9810e+003    5.1500e+000   -5.6900e-001
  1865.0    2.5444e+003    6.6408e+000   -7.7133e-001
  1870.0    3.3653e+003    8.9400e+000   -1.1300e+000
  1875.0    4.1123e+003    1.2818e+001   -1.7205e+000
  1880.0    4.9248e+003    1.8200e+001   -2.4000e+000
  1885.0    5.6519e+003    2.5370e+001   -3.3224e+000
  1890.0    6.3512e+003    3.3800e+001   -4.3500e+000
  1895.0    6.9170e+003    4.3972e+001   -4.9104e+000
  1900.0    7.5315e+003    5.0200e+001   -4.4700e+000
  1905.0    9.0180e+003    5.2968e+001   -3.1753e+000
  1910.0    1.1051e+004    5.1200e+001   -1.7600e+000
  1915.0    1.1569e+004    4.4460e+001   -6.7242e-001
  1920.0    1.2019e+004    3.3800e+001    1.3400e-003
  1925.0    1.2218e+004    2.1114e+001    4.2970e-001
  1930.0    1.2421e+004    9.0700e+000    7.4700e-001
  1935.0    1.2454e+004   -1.4437e+000    1.1083e+000
  1940.0    1.2374e+004   -9.8500e+000    1.5100e+000
  1945.0    1.2151e+004   -1.6129e+001    1.8863e+000
  1950.0    1.1892e+004   -2.0800e+001    2.2000e+000
  1955.0    1.1385e+004   -2.4366e+001    2.3698e+000
  1960.0    1.0859e+004   -2.6900e+001    2.3500e+000
  1965.0    1.0232e+004   -2.8715e+001    2.1832e+000
  1970.0    9.7248e+003   -3.0000e+001    1.8600e+000
  1975.0    9.3529e+003   -3.0757e+001    1.3881e+000
  1980.0    8.9961e+003   -3.1200e+001    8.2200e-001
  1985.0    8.4955e+003   -3.1408e+001    2.0995e-001
  1990.0    7.9608e+003   -3.1400e+001   -4.2200e-001
  1995.0    7.4187e+003   -3.1108e+001   -1.0236e+000
  2000.0    6.9098e+003   -3.0600e+001   -1.5700e+000
\end_data
